# DOS calculated from the spectral function, k-averaged
# Date: 2024-07-25
#   E [eV]       DOS [1/eV]
  -1.99500   0.19633435E-02
  -1.98500   0.19611270E-02
  -1.97500   0.19646645E-02
  -1.96500   0.19738512E-02
  -1.95500   0.19886474E-02
  -1.94500   0.20090754E-02
  -1.93500   0.20352186E-02
  -1.92500   0.20672217E-02
  -1.91500   0.21052928E-02
  -1.90500   0.21497064E-02
  -1.89500   0.22008083E-02
  -1.88500   0.22590222E-02
  -1.87500   0.23248582E-02
  -1.86500   0.23989236E-02
  -1.85500   0.24819363E-02
  -1.84500   0.25747417E-02
  -1.83500   0.26783330E-02
  -1.82500   0.27938772E-02
  -1.81500   0.29227466E-02
  -1.80500   0.30665577E-02
  -1.79500   0.32272210E-02
  -1.78500   0.34070017E-02
  -1.77500   0.36085984E-02
  -1.76500   0.38352416E-02
  -1.75500   0.40908204E-02
  -1.74500   0.43800474E-02
  -1.73500   0.47086726E-02
  -1.72500   0.50837668E-02
  -1.71500   0.55140995E-02
  -1.70500   0.60106497E-02
  -1.69500   0.65873056E-02
  -1.68500   0.72618375E-02
  -1.67500   0.80572735E-02
  -1.66500   0.90038782E-02
  -1.65500   0.10142060E-01
  -1.64500   0.11526737E-01
  -1.63500   0.13234063E-01
  -1.62500   0.15372095E-01
  -1.61500   0.18098273E-01
  -1.60500   0.21649189E-01
  -1.59500   0.26393595E-01
  -1.58500   0.32931954E-01
  -1.57500   0.42295865E-01
  -1.56500   0.56380617E-01
  -1.55500   0.78983599E-01
  -1.54500   0.11865464E+00
  -1.53500   0.19812986E+00
  -1.52500   0.39583469E+00
  -1.51500   0.11491753E+01
  -1.50500   0.11964970E+02
  -1.49500   0.66846304E+01
  -1.48500   0.91869656E+00
  -1.47500   0.34707916E+00
  -1.46500   0.18121141E+00
  -1.45500   0.11127858E+00
  -1.44500   0.75372133E-01
  -1.43500   0.54527224E-01
  -1.42500   0.41363986E-01
  -1.41500   0.32526383E-01
  -1.40500   0.26310006E-01
  -1.39500   0.21774625E-01
  -1.38500   0.18367082E-01
  -1.37500   0.15744714E-01
  -1.36500   0.13686091E-01
  -1.35500   0.12042994E-01
  -1.34500   0.10713208E-01
  -1.33500   0.96244307E-02
  -1.32500   0.87243873E-02
  -1.31500   0.79745673E-02
  -1.30500   0.73461377E-02
  -1.29500   0.68172150E-02
  -1.28500   0.63710015E-02
  -1.27500   0.59944909E-02
  -1.26500   0.56775535E-02
  -1.25500   0.54122830E-02
  -1.24500   0.51925239E-02
  -1.23500   0.50135306E-02
  -1.22500   0.48717213E-02
  -1.21500   0.47645046E-02
  -1.20500   0.46901623E-02
  -1.19500   0.46477793E-02
  -1.18500   0.46372157E-02
  -1.17500   0.46591186E-02
  -1.16500   0.47149756E-02
  -1.15500   0.48072169E-02
  -1.14500   0.49393769E-02
  -1.13500   0.51163313E-02
  -1.12500   0.53446389E-02
  -1.11500   0.56330296E-02
  -1.10500   0.59931026E-02
  -1.09500   0.64403378E-02
  -1.08500   0.69955817E-02
  -1.07500   0.76872754E-02
  -1.06500   0.85548739E-02
  -1.05500   0.96542414E-02
  -1.04500   0.11066454E-01
  -1.03500   0.12912733E-01
  -1.02500   0.15381138E-01
  -1.01500   0.18778228E-01
  -1.00500   0.23658643E-01
  -0.99500   0.32806240E-01
  -0.98500   0.46970530E-01
  -0.97500   0.70601952E-01
  -0.96500   0.11585472E+00
  -0.95500   0.22063757E+00
  -0.94500   0.56218880E+00
  -0.93500   0.32409564E+01
  -0.92500   0.19087927E+02
  -0.91500   0.10098431E+01
  -0.90500   0.32829252E+00
  -0.89500   0.16202082E+00
  -0.88500   0.96950655E-01
  -0.87500   0.64856777E-01
  -0.86500   0.46666447E-01
  -0.85500   0.35349428E-01
  -0.84500   0.27821053E-01
  -0.83500   0.22553674E-01
  -0.82500   0.18719969E-01
  -0.81500   0.15839909E-01
  -0.80500   0.13619268E-01
  -0.79500   0.11869454E-01
  -0.78500   0.10465004E-01
  -0.77500   0.93197858E-02
  -0.76500   0.83730548E-02
  -0.75500   0.75809612E-02
  -0.74500   0.69111974E-02
  -0.73500   0.63395285E-02
  -0.72500   0.58474817E-02
  -0.71500   0.54207731E-02
  -0.70500   0.50482149E-02
  -0.69500   0.47209417E-02
  -0.68500   0.44318536E-02
  -0.67500   0.41752094E-02
  -0.66500   0.39463255E-02
  -0.65500   0.37413499E-02
  -0.64500   0.35570907E-02
  -0.63500   0.33908848E-02
  -0.62500   0.32404960E-02
  -0.61500   0.31040357E-02
  -0.60500   0.29798998E-02
  -0.59500   0.28667191E-02
  -0.58500   0.27633197E-02
  -0.57500   0.26686904E-02
  -0.56500   0.25819566E-02
  -0.55500   0.25023598E-02
  -0.54500   0.24292393E-02
  -0.53500   0.23620181E-02
  -0.52500   0.23001913E-02
  -0.51500   0.22433157E-02
  -0.50500   0.21910016E-02
  -0.49500   0.21429061E-02
  -0.48500   0.20987269E-02
  -0.47500   0.20581976E-02
  -0.46500   0.20210832E-02
  -0.45500   0.19871769E-02
  -0.44500   0.19562970E-02
  -0.43500   0.19282842E-02
  -0.42500   0.19029994E-02
  -0.41500   0.18803221E-02
  -0.40500   0.18601488E-02
  -0.39500   0.18423915E-02
  -0.38500   0.18269769E-02
  -0.37500   0.18138455E-02
  -0.36500   0.18029509E-02
  -0.35500   0.17942590E-02
  -0.34500   0.17877486E-02
  -0.33500   0.17834099E-02
  -0.32500   0.17812455E-02
  -0.31500   0.17812703E-02
  -0.30500   0.17835114E-02
  -0.29500   0.17880088E-02
  -0.28500   0.17948163E-02
  -0.27500   0.18040018E-02
  -0.26500   0.18156487E-02
  -0.25500   0.18298567E-02
  -0.24500   0.18467441E-02
  -0.23500   0.18664486E-02
  -0.22500   0.18891305E-02
  -0.21500   0.19149746E-02
  -0.20500   0.19441935E-02
  -0.19500   0.19770315E-02
  -0.18500   0.20137685E-02
  -0.17500   0.20547259E-02
  -0.16500   0.21002721E-02
  -0.15500   0.21508307E-02
  -0.14500   0.22068890E-02
  -0.13500   0.22690093E-02
  -0.12500   0.23378420E-02
  -0.11500   0.24141416E-02
  -0.10500   0.24987873E-02
  -0.09500   0.25928065E-02
  -0.08500   0.26974064E-02
  -0.07500   0.28140115E-02
  -0.06500   0.29443122E-02
  -0.05500   0.30903258E-02
  -0.04500   0.32544749E-02
  -0.03500   0.34396893E-02
  -0.02500   0.36495383E-02
  -0.01500   0.38884056E-02
  -0.00500   0.41617236E-02
   0.00500   0.44762897E-02
   0.01500   0.48406998E-02
   0.02500   0.52659525E-02
   0.03500   0.57663046E-02
   0.04500   0.63605040E-02
   0.05500   0.70736042E-02
   0.06500   0.79396974E-02
   0.07500   0.90061365E-02
   0.08500   0.10340253E-01
   0.09500   0.12040414E-01
   0.10500   0.14254935E-01
   0.11500   0.17215954E-01
   0.12500   0.21303501E-01
   0.13500   0.27174935E-01
   0.14500   0.36048814E-01
   0.15500   0.50396213E-01
   0.16500   0.75876230E-01
   0.17500   0.12793113E+00
   0.18500   0.26223526E+00
   0.19500   0.82140553E+00
   0.20500   0.15670879E+02
   0.21500   0.26927853E+01
   0.22500   0.46739828E+00
   0.23500   0.18709904E+00
   0.24500   0.10063253E+00
   0.25500   0.63144935E-01
   0.26500   0.43611475E-01
   0.27500   0.32187977E-01
   0.28500   0.24960381E-01
   0.29500   0.20123052E-01
   0.30500   0.16750030E-01
   0.31500   0.14327425E-01
   0.32500   0.12552214E-01
   0.33500   0.11237170E-01
   0.34500   0.10262501E-01
   0.35500   0.95497797E-02
   0.36500   0.90472421E-02
   0.37500   0.87212423E-02
   0.38500   0.85512490E-02
   0.39500   0.85270265E-02
   0.40500   0.86473068E-02
   0.41500   0.89196479E-02
   0.42500   0.93614483E-02
   0.43500   0.10002358E-01
   0.44500   0.10888680E-01
   0.45500   0.12090944E-01
   0.46500   0.13716951E-01
   0.47500   0.15934823E-01
   0.48500   0.19015554E-01
   0.49500   0.23416070E-01
   0.50500   0.29953502E-01
   0.51500   0.40205729E-01
   0.52500   0.57548674E-01
   0.53500   0.90317870E-01
   0.54500   0.16404194E+00
   0.55500   0.39174440E+00
   0.56500   0.19398664E+01
   0.57500   0.32646991E+02
   0.58500   0.89239679E+00
   0.59500   0.26401334E+00
   0.60500   0.12472714E+00
   0.61500   0.72559315E-01
   0.62500   0.47525156E-01
   0.63500   0.33614885E-01
   0.64500   0.25094553E-01
   0.65500   0.19499190E-01
   0.66500   0.15627151E-01
   0.67500   0.12835968E-01
   0.68500   0.10756889E-01
   0.69500   0.91660163E-02
   0.70500   0.79210260E-02
   0.71500   0.69279442E-02
   0.72500   0.61226947E-02
   0.73500   0.54603688E-02
   0.74500   0.49087336E-02
   0.75500   0.44441660E-02
   0.76500   0.40490316E-02
   0.77500   0.37099486E-02
   0.78500   0.34166117E-02
   0.79500   0.31609789E-02
   0.80500   0.29366970E-02
   0.81500   0.27386917E-02
   0.82500   0.25628678E-02
   0.83500   0.24058877E-02
   0.84500   0.22650067E-02
   0.85500   0.21379473E-02
   0.86500   0.20228024E-02
   0.87500   0.19179607E-02
   0.88500   0.18220471E-02
   0.89500   0.17338746E-02
   0.90500   0.16524044E-02
   0.91500   0.15767104E-02
   0.92500   0.15059471E-02
   0.93500   0.14393133E-02
   0.94500   0.13760090E-02
   0.95500   0.13151687E-02
   0.96500   0.12557373E-02
   0.97500   0.11961839E-02
   0.98500   0.11336107E-02
   0.99500   0.10589130E-02
   1.00500   0.97686749E-03
   1.01500   0.95698767E-03
   1.02500   0.94040406E-03
   1.03500   0.92556546E-03
   1.04500   0.91216435E-03
   1.05500   0.90005135E-03
   1.06500   0.88912469E-03
   1.07500   0.87930459E-03
   1.08500   0.87052450E-03
   1.09500   0.86272740E-03
   1.10500   0.85586379E-03
   1.11500   0.84989030E-03
   1.12500   0.84476908E-03
   1.13500   0.84046695E-03
   1.14500   0.83695516E-03
   1.15500   0.83420876E-03
   1.16500   0.83220644E-03
   1.17500   0.83093018E-03
   1.18500   0.83036513E-03
   1.19500   0.83049937E-03
   1.20500   0.83132372E-03
   1.21500   0.83283173E-03
   1.22500   0.83501952E-03
   1.23500   0.83788571E-03
   1.24500   0.84143139E-03
   1.25500   0.84566018E-03
   1.26500   0.85057805E-03
   1.27500   0.85619352E-03
   1.28500   0.86251762E-03
   1.29500   0.86956389E-03
   1.30500   0.87734863E-03
   1.31500   0.88589085E-03
   1.32500   0.89521245E-03
   1.33500   0.90533843E-03
   1.34500   0.91629697E-03
   1.35500   0.92811974E-03
   1.36500   0.94084209E-03
   1.37500   0.95450339E-03
   1.38500   0.96914725E-03
   1.39500   0.98482200E-03
   1.40500   0.10015811E-02
   1.41500   0.10194836E-02
   1.42500   0.10385946E-02
   1.43500   0.10589861E-02
   1.44500   0.10807375E-02
   1.45500   0.11039366E-02
   1.46500   0.11286805E-02
   1.47500   0.11550765E-02
   1.48500   0.11832437E-02
   1.49500   0.12133141E-02
   1.50500   0.12454345E-02
   1.51500   0.12797683E-02
   1.52500   0.13164977E-02
   1.53500   0.13558266E-02
   1.54500   0.13979832E-02
   1.55500   0.14432241E-02
   1.56500   0.14918383E-02
   1.57500   0.15441521E-02
   1.58500   0.16005353E-02
   1.59500   0.16614082E-02
   1.60500   0.17272502E-02
   1.61500   0.17986101E-02
   1.62500   0.18761191E-02
   1.63500   0.19605050E-02
   1.64500   0.20526122E-02
   1.65500   0.21534240E-02
   1.66500   0.22640917E-02
   1.67500   0.23859706E-02
   1.68500   0.25206654E-02
   1.69500   0.26700884E-02
   1.70500   0.28365332E-02
   1.71500   0.30227714E-02
   1.72500   0.32321780E-02
   1.73500   0.34688989E-02
   1.74500   0.37380735E-02
   1.75500   0.40461379E-02
   1.76500   0.44012427E-02
   1.77500   0.48138357E-02
   1.78500   0.52974921E-02
   1.79500   0.58701187E-02
   1.80500   0.65557370E-02
   1.81500   0.73871876E-02
   1.82500   0.84103474E-02
   1.83500   0.96909055E-02
   1.84500   0.11325647E-01
   1.85500   0.13462029E-01
   1.86500   0.16333827E-01
   1.87500   0.20329928E-01
   1.88500   0.26136844E-01
   1.89500   0.35061329E-01
   1.90500   0.49849560E-01
   1.91500   0.77116501E-01
   1.92500   0.13636405E+00
   1.93500   0.30812858E+00
   1.94500   0.12790440E+01
   1.95500   0.25160017E+03
   1.96500   0.10610011E+01
   1.97500   0.27885667E+00
   1.98500   0.12726805E+00
   1.99500   0.73575706E-01
